# beta(deg),gamma(deg)
58.283,90.000
58.283,270.000
121.717,90.000
121.717,270.000
31.717,0.000
31.717,180.000
148.283,0.000
148.283,180.000
90.000,31.717
90.000,148.283
90.000,328.283
90.000,211.717
90.000,180.000
120.000,200.905
60.000,200.905
120.000,159.095
60.000,159.095
108.000,238.283
72.000,238.283
108.000,121.717
72.000,121.717
144.000,238.283
36.000,238.283
144.000,121.717
36.000,121.717
90.000,270.000
180.000,0.000
0.000,0.000
90.000,90.000
144.000,301.717
36.000,301.717
144.000,58.283
36.000,58.283
108.000,301.717
72.000,301.717
108.000,58.283
72.000,58.283
120.000,339.095
60.000,339.095
120.000,20.905
60.000,20.905
90.000,0.000
90.000,195.859
90.000,164.141
105.240,189.694
74.760,189.694
105.240,170.306
74.760,170.306
105.064,206.701
74.936,206.701
105.064,153.299
74.936,153.299
121.717,180.000
58.283,180.000
99.243,224.661
80.757,224.661
99.243,135.339
80.757,135.339
134.591,193.035
45.409,193.035
134.591,166.965
45.409,166.965
115.171,220.501
64.829,220.501
115.171,139.499
64.829,139.499
133.487,215.890
46.513,215.890
133.487,144.110
46.513,144.110
90.000,238.283
90.000,121.717
149.618,210.921
30.382,210.921
149.618,149.079
30.382,149.079
126.000,238.283
54.000,238.283
126.000,121.717
54.000,121.717
164.141,180.000
15.859,180.000
99.350,254.550
80.650,254.550
115.715,253.234
64.285,253.234
115.715,106.766
64.285,106.766
99.350,105.450
80.650,105.450
133.930,257.113
46.070,257.113
162.000,238.283
18.000,238.283
162.000,121.717
18.000,121.717
133.930,102.887
46.070,102.887
105.859,270.000
74.141,270.000
148.283,270.000
31.717,270.000
148.283,90.000
31.717,90.000
105.859,90.000
74.141,90.000
133.930,282.887
46.070,282.887
162.000,301.717
18.000,301.717
162.000,58.283
18.000,58.283
133.930,77.113
46.070,77.113
99.350,285.450
80.650,285.450
115.715,286.766
64.285,286.766
115.715,73.234
64.285,73.234
99.350,74.550
80.650,74.550
164.141,0.000
15.859,0.000
126.000,301.717
54.000,301.717
126.000,58.283
54.000,58.283
149.618,329.079
30.382,329.079
149.618,30.921
30.382,30.921
90.000,301.717
90.000,58.283
133.487,324.110
46.513,324.110
133.487,35.890
46.513,35.890
115.171,319.499
64.829,319.499
115.171,40.501
64.829,40.501
134.591,346.965
45.409,346.965
134.591,13.035
45.409,13.035
99.243,315.339
80.757,315.339
99.243,44.661
80.757,44.661
121.717,0.000
58.283,0.000
105.064,333.299
74.936,333.299
105.064,26.701
74.936,26.701
105.240,350.306
74.760,350.306
105.240,9.694
74.760,9.694
90.000,344.141
90.000,15.859
90.000,187.929
90.000,172.071
97.647,184.760
82.353,184.760
97.647,175.240
82.353,175.240
97.631,192.831
82.369,192.831
97.631,167.169
82.369,167.169
105.450,180.000
74.550,180.000
97.565,201.185
82.435,201.185
97.565,158.815
82.435,158.815
105.312,198.201
74.688,198.201
105.312,161.799
74.688,161.799
90.000,203.788
90.000,156.212
113.554,185.152
66.446,185.152
113.554,174.848
66.446,174.848
112.717,194.996
67.283,194.996
112.717,165.004
67.283,165.004
97.539,209.253
82.461,209.253
97.539,150.747
82.461,150.747
112.558,203.961
67.442,203.961
112.558,156.039
67.442,156.039
121.283,190.547
58.717,190.547
121.283,169.453
58.717,169.453
102.300,215.780
77.700,215.780
102.300,144.220
77.700,144.220
94.651,218.147
85.349,218.147
94.651,141.853
85.349,141.853
110.252,213.376
69.748,213.376
110.252,146.624
69.748,146.624
128.334,185.937
51.666,185.937
128.334,174.063
51.666,174.063
127.360,197.355
52.640,197.355
127.360,162.645
52.640,162.645
117.932,210.921
62.068,210.921
117.932,149.079
62.068,149.079
90.000,224.661
90.000,135.339
126.977,207.732
53.023,207.732
126.977,152.268
53.023,152.268
107.218,222.671
72.782,222.671
107.218,137.329
72.782,137.329
135.339,180.000
44.661,180.000
134.613,204.570
45.387,204.570
134.613,155.430
45.387,155.430
124.351,218.449
55.649,218.449
124.351,141.551
55.649,141.551
94.654,231.516
85.346,231.516
94.654,128.484
85.346,128.484
141.614,187.503
38.386,187.503
141.614,172.497
38.386,172.497
103.715,231.345
76.285,231.345
103.715,128.655
76.285,128.655
111.823,229.614
68.177,229.614
111.823,130.386
68.177,130.386
142.434,200.451
37.566,200.451
142.434,159.549
37.566,159.549
120.889,228.890
59.111,228.890
120.889,131.110
59.111,131.110
99.000,238.283
81.000,238.283
99.000,121.717
81.000,121.717
141.578,213.849
38.422,213.849
141.578,146.151
38.422,146.151
130.284,227.703
49.716,227.703
130.284,132.297
49.716,132.297
149.875,195.154
30.125,195.154
149.875,164.846
30.125,164.846
117.000,238.283
63.000,238.283
117.000,121.717
63.000,121.717
139.283,225.897
40.717,225.897
139.283,134.103
40.717,134.103
156.212,180.000
23.788,180.000
94.722,246.361
85.278,246.361
94.722,113.639
85.278,113.639
103.808,246.567
76.192,246.567
103.808,113.433
76.192,113.433
112.027,245.555
67.973,245.555
112.027,114.445
67.973,114.445
147.555,225.648
32.445,225.648
147.555,134.352
32.445,134.352
135.000,238.283
45.000,238.283
135.000,121.717
45.000,121.717
157.564,200.179
22.436,200.179
157.564,159.821
22.436,159.821
121.072,246.163
58.928,246.163
121.072,113.837
58.928,113.837
156.383,221.238
23.617,221.238
156.383,138.762
23.617,138.762
130.347,247.146
49.653,247.146
130.347,112.854
49.653,112.854
90.000,254.550
90.000,105.450
107.533,253.922
72.467,253.922
107.533,106.078
72.467,106.078
153.000,238.283
27.000,238.283
153.000,121.717
27.000,121.717
139.346,248.659
40.654,248.659
139.346,111.341
40.654,111.341
165.104,211.102
14.896,211.102
165.104,148.898
14.896,148.898
124.838,254.957
55.162,254.957
124.838,105.043
55.162,105.043
147.159,253.234
32.841,253.234
147.159,106.766
32.841,106.766
172.071,180.000
7.929,180.000
94.717,262.327
85.283,262.327
102.716,262.176
77.284,262.176
102.716,97.824
77.284,97.824
94.717,97.673
85.283,97.673
110.991,261.893
69.009,261.893
118.976,261.375
61.024,261.375
118.976,98.625
61.024,98.625
110.991,98.107
69.009,98.107
155.921,258.359
24.079,258.359
171.000,238.283
9.000,238.283
171.000,121.717
9.000,121.717
155.921,101.641
24.079,101.641
127.999,264.094
52.001,264.094
141.279,262.547
38.721,262.547
141.279,97.453
38.721,97.453
127.999,95.906
52.001,95.906
97.929,270.000
82.071,270.000
113.788,270.000
66.212,270.000
134.661,270.000
45.339,270.000
164.550,270.000
15.450,270.000
164.550,90.000
15.450,90.000
134.661,90.000
45.339,90.000
113.788,90.000
66.212,90.000
97.929,90.000
82.071,90.000
127.999,275.906
52.001,275.906
141.279,277.453
38.721,277.453
141.279,82.547
38.721,82.547
127.999,84.094
52.001,84.094
155.921,281.641
24.079,281.641
171.000,301.717
9.000,301.717
171.000,58.283
9.000,58.283
155.921,78.359
24.079,78.359
110.991,278.107
69.009,278.107
118.976,278.625
61.024,278.625
118.976,81.375
61.024,81.375
110.991,81.893
69.009,81.893
94.717,277.673
85.283,277.673
102.716,277.824
77.284,277.824
102.716,82.176
77.284,82.176
94.717,82.327
85.283,82.327
172.071,0.000
7.929,0.000
147.159,286.766
32.841,286.766
147.159,73.234
32.841,73.234
124.838,285.043
55.162,285.043
124.838,74.957
55.162,74.957
165.104,328.898
14.896,328.898
165.104,31.102
14.896,31.102
139.346,291.341
40.654,291.341
139.346,68.659
40.654,68.659
153.000,301.717
27.000,301.717
153.000,58.283
27.000,58.283
107.533,286.078
72.467,286.078
107.533,73.922
72.467,73.922
90.000,285.450
90.000,74.550
130.347,292.854
49.653,292.854
130.347,67.146
49.653,67.146
156.383,318.762
23.617,318.762
156.383,41.238
23.617,41.238
121.072,293.837
58.928,293.837
121.072,66.163
58.928,66.163
157.564,339.821
22.436,339.821
157.564,20.179
22.436,20.179
135.000,301.717
45.000,301.717
135.000,58.283
45.000,58.283
147.555,314.352
32.445,314.352
147.555,45.648
32.445,45.648
112.027,294.445
67.973,294.445
112.027,65.555
67.973,65.555
103.808,293.433
76.192,293.433
103.808,66.567
76.192,66.567
94.722,293.639
85.278,293.639
94.722,66.361
85.278,66.361
156.212,0.000
23.788,0.000
139.283,314.103
40.717,314.103
139.283,45.897
40.717,45.897
117.000,301.717
63.000,301.717
117.000,58.283
63.000,58.283
149.875,344.846
30.125,344.846
149.875,15.154
30.125,15.154
130.284,312.297
49.716,312.297
130.284,47.703
49.716,47.703
141.578,326.151
38.422,326.151
141.578,33.849
38.422,33.849
99.000,301.717
81.000,301.717
99.000,58.283
81.000,58.283
120.889,311.110
59.111,311.110
120.889,48.890
59.111,48.890
142.434,339.549
37.566,339.549
142.434,20.451
37.566,20.451
111.823,310.386
68.177,310.386
111.823,49.614
68.177,49.614
103.715,308.655
76.285,308.655
103.715,51.345
76.285,51.345
141.614,352.497
38.386,352.497
141.614,7.503
38.386,7.503
94.654,308.484
85.346,308.484
94.654,51.516
85.346,51.516
124.351,321.551
55.649,321.551
124.351,38.449
55.649,38.449
134.613,335.430
45.387,335.430
134.613,24.570
45.387,24.570
135.339,0.000
44.661,0.000
107.218,317.329
72.782,317.329
107.218,42.671
72.782,42.671
126.977,332.268
53.023,332.268
126.977,27.732
53.023,27.732
90.000,315.339
90.000,44.661
117.932,329.079
62.068,329.079
117.932,30.921
62.068,30.921
127.360,342.645
52.640,342.645
127.360,17.355
52.640,17.355
128.334,354.063
51.666,354.063
128.334,5.937
51.666,5.937
110.252,326.624
69.748,326.624
110.252,33.376
69.748,33.376
94.651,321.853
85.349,321.853
94.651,38.147
85.349,38.147
102.300,324.220
77.700,324.220
102.300,35.780
77.700,35.780
121.283,349.453
58.717,349.453
121.283,10.547
58.717,10.547
112.558,336.039
67.442,336.039
112.558,23.961
67.442,23.961
97.539,330.747
82.461,330.747
97.539,29.253
82.461,29.253
112.717,345.004
67.283,345.004
112.717,14.996
67.283,14.996
113.554,354.848
66.446,354.848
113.554,5.152
66.446,5.152
90.000,336.212
90.000,23.788
105.312,341.799
74.688,341.799
105.312,18.201
74.688,18.201
97.565,338.815
82.435,338.815
97.565,21.185
82.435,21.185
105.450,0.000
74.550,0.000
97.631,347.169
82.369,347.169
97.631,12.831
82.369,12.831
97.647,355.240
82.353,355.240
97.647,4.760
82.353,4.760
90.000,352.071
90.000,7.929
90.000,183.965
90.000,176.035
93.827,182.369
86.173,182.369
93.827,177.631
86.173,177.631
93.825,186.352
86.175,186.352
93.825,173.648
86.175,173.648
97.673,180.000
82.327,180.000
93.819,190.370
86.181,190.370
93.819,169.630
86.181,169.630
97.658,188.796
82.342,188.796
97.658,171.204
82.342,171.204
90.000,191.894
90.000,168.106
101.558,182.413
78.442,182.413
101.558,177.587
78.442,177.587
101.454,187.194
78.546,187.194
101.454,172.806
78.546,172.806
93.817,194.352
86.183,194.352
93.817,165.648
86.183,165.648
101.440,191.284
78.560,191.284
101.440,168.716
78.560,168.716
105.398,184.849
74.602,184.849
105.398,175.151
74.602,175.151
97.618,197.008
82.382,197.008
97.618,162.992
82.382,162.992
93.787,198.510
86.213,198.510
93.787,161.490
86.213,161.490
101.484,195.479
78.516,195.479
101.484,164.521
78.516,164.521
90.000,199.823
90.000,160.177
109.520,182.512
70.480,182.512
109.520,177.488
70.480,177.488
105.317,193.946
74.683,193.946
105.317,166.054
74.683,166.054
109.411,187.481
70.589,187.481
109.411,172.519
70.589,172.519
108.998,192.285
71.002,192.285
108.998,167.715
71.002,167.715
101.443,199.713
78.557,199.713
101.443,160.287
78.557,160.287
93.784,202.492
86.216,202.492
93.784,157.508
86.216,157.508
113.639,180.000
66.361,180.000
109.022,196.634
70.978,196.634
109.022,163.366
70.978,163.366
113.212,190.090
66.788,190.090
113.212,169.910
66.788,169.910
97.571,205.219
82.429,205.219
97.571,154.781
82.429,154.781
101.327,203.906
78.673,203.906
101.327,156.094
78.673,156.094
93.774,206.509
86.226,206.509
93.774,153.491
86.226,153.491
105.228,202.453
74.772,202.453
105.228,157.547
74.772,157.547
90.000,207.753
90.000,152.247
117.659,182.673
62.341,182.673
117.659,177.327
62.341,177.327
108.957,201.018
71.043,201.018
108.957,158.982
71.043,158.982
117.444,187.755
62.556,187.755
117.444,172.245
62.556,172.245
112.700,199.481
67.300,199.481
112.700,160.519
67.300,160.519
117.017,192.857
62.983,192.857
117.017,167.143
62.983,167.143
101.304,207.994
78.696,207.994
101.304,152.006
78.696,152.006
93.770,210.491
86.230,210.491
93.770,149.509
86.230,149.509
108.816,205.361
71.184,205.361
108.816,154.639
71.184,154.639
116.389,197.857
63.611,197.857
116.389,162.143
63.611,162.143
121.608,185.286
58.392,185.286
121.608,174.714
58.392,174.714
99.935,212.493
80.065,212.493
99.935,147.507
80.065,147.507
103.723,211.267
76.277,211.267
103.723,148.733
76.277,148.733
116.287,202.482
63.713,202.482
116.287,157.518
63.713,157.518
120.744,195.761
59.256,195.761
120.744,164.239
59.256,164.239
96.113,213.712
83.887,213.712
96.113,146.288
83.887,146.288
107.686,209.990
72.314,209.990
107.686,150.010
72.314,150.010
92.329,214.927
87.671,214.927
92.329,145.073
87.671,145.073
125.062,182.848
54.938,182.848
125.062,177.152
54.938,177.152
111.471,208.706
68.529,208.706
111.471,151.294
68.529,151.294
124.830,188.341
55.170,188.341
124.830,171.659
55.170,171.659
115.286,207.364
64.714,207.364
115.286,152.636
64.714,152.636
124.368,193.827
55.632,193.827
124.368,166.173
55.632,166.173
98.477,216.975
81.523,216.975
98.477,143.025
81.523,143.025
106.279,214.602
73.721,214.602
106.279,145.398
73.721,145.398
90.000,218.147
90.000,141.853
123.693,199.206
56.307,199.206
123.693,160.794
56.307,160.794
119.059,205.963
60.941,205.963
119.059,154.037
60.941,154.037
128.484,180.000
51.516,180.000
114.097,212.185
65.903,212.185
114.097,147.815
65.903,147.815
127.985,191.684
52.015,191.684
127.985,168.316
52.015,168.316
123.535,204.181
56.465,204.181
123.535,155.819
56.465,155.819
92.329,221.409
87.671,221.409
92.329,138.591
87.671,138.591
104.784,219.186
75.216,219.186
104.784,140.814
75.216,140.814
100.803,220.243
79.197,220.243
100.803,139.757
79.197,139.757
96.958,221.388
83.042,221.388
96.958,138.612
83.042,138.612
108.792,218.065
71.208,218.065
108.792,141.935
71.208,141.935
131.875,183.132
48.125,183.132
131.875,176.868
48.125,176.868
131.517,189.315
48.483,189.315
131.517,170.685
48.483,170.685
112.751,216.874
67.249,216.874
112.751,143.126
67.249,143.126
127.282,202.557
52.718,202.557
127.282,157.443
52.718,157.443
122.465,209.407
57.535,209.407
122.465,150.593
57.535,150.593
130.996,195.313
49.004,195.313
130.996,164.687
49.004,164.687
116.632,215.769
63.368,215.769
116.632,144.231
63.368,144.231
94.622,224.661
85.378,224.661
94.622,135.339
85.378,135.339
131.043,200.764
48.957,200.764
131.043,159.236
48.957,159.236
121.196,214.557
58.804,214.557
121.196,145.443
58.804,145.443
103.232,223.682
76.768,223.682
103.232,136.318
76.768,136.318
135.151,186.560
44.849,186.560
135.151,173.440
44.849,173.440
111.198,221.615
68.802,221.615
111.198,138.385
68.802,138.385
130.806,206.242
49.194,206.242
130.806,153.758
49.194,153.758
125.783,213.179
54.217,213.179
125.783,146.821
54.217,146.821
134.747,198.802
45.253,198.802
134.747,161.198
45.253,161.198
119.765,219.522
60.235,219.522
119.765,140.478
60.235,140.478
92.331,228.083
87.669,228.083
92.331,131.917
87.669,131.917
96.961,228.105
83.039,228.105
96.961,131.895
83.039,131.895
138.537,183.519
41.463,183.519
138.537,176.481
41.463,176.481
138.136,190.459
41.864,190.459
138.136,169.541
41.864,169.541
105.508,227.045
74.492,227.045
105.508,132.955
74.492,132.955
101.498,227.976
78.502,227.976
101.498,132.024
78.502,132.024
109.554,226.093
70.446,226.093
109.554,133.907
70.446,133.907
130.304,211.614
49.696,211.614
130.304,148.386
49.696,148.386
113.564,225.115
66.436,225.115
113.564,134.885
66.436,134.885
138.572,196.455
41.428,196.455
138.572,163.545
41.428,163.545
118.094,224.583
61.906,224.583
118.094,135.417
61.906,135.417
90.000,231.516
90.000,128.484
134.190,210.284
45.810,210.284
134.190,149.716
45.810,149.716
128.926,217.252
51.074,217.252
128.926,142.748
51.074,142.748
141.853,180.000
38.147,180.000
99.184,231.432
80.816,231.432
99.184,128.568
80.816,128.568
138.541,202.670
41.459,202.670
138.541,157.330
41.459,157.330
122.728,223.771
57.272,223.771
122.728,136.229
57.272,136.229
107.771,230.499
72.229,230.499
107.771,129.501
72.229,129.501
142.201,193.917
37.799,193.917
142.201,166.083
37.799,166.083
116.357,229.266
63.643,229.266
116.357,130.734
63.643,130.734
138.188,208.894
41.812,208.894
138.188,151.106
41.812,151.106
127.407,222.893
52.593,222.893
127.407,137.107
52.593,137.107
92.331,234.905
87.669,234.905
92.331,125.095
87.669,125.095
145.006,184.064
34.994,184.064
145.006,175.936
34.994,175.936
96.839,234.884
83.161,234.884
96.839,125.116
83.161,125.116
101.378,234.842
78.622,234.842
101.378,125.158
78.622,125.158
105.885,234.777
74.115,234.777
105.885,125.223
74.115,125.223
137.537,214.948
42.463,214.948
137.537,145.052
42.463,145.052
109.964,234.001
70.036,234.001
109.964,125.999
70.036,125.999
132.037,221.945
47.963,221.945
132.037,138.055
47.963,138.055
145.803,190.922
34.197,190.922
145.803,169.078
34.197,169.078
142.196,207.214
37.804,207.214
142.196,152.786
37.804,152.786
125.588,228.331
54.412,228.331
125.588,131.669
54.412,131.669
114.474,233.859
65.526,233.859
114.474,126.141
65.526,126.141
146.182,198.059
33.818,198.059
146.182,161.941
33.818,161.941
94.500,238.283
85.500,238.283
94.500,121.717
85.500,121.717
136.494,220.627
43.506,220.627
136.494,139.373
43.506,139.373
119.026,233.674
60.974,233.674
119.026,126.326
60.974,126.326
103.500,238.283
76.500,238.283
103.500,121.717
76.500,121.717
149.299,187.400
30.701,187.400
149.299,172.600
30.701,172.600
146.136,205.197
33.864,205.197
146.136,154.803
33.864,154.803
123.533,233.447
56.467,233.447
123.533,126.553
56.467,126.553
140.586,220.019
39.414,220.019
140.586,139.981
39.414,139.981
112.500,238.283
67.500,238.283
112.500,121.717
67.500,121.717
134.787,226.871
45.213,226.871
134.787,133.129
45.213,133.129
145.606,212.535
34.394,212.535
145.606,147.465
34.394,147.465
128.261,233.149
51.739,233.149
128.261,126.851
51.739,126.851
152.247,180.000
27.753,180.000
92.367,242.315
87.633,242.315
92.367,117.685
87.633,117.685
96.878,242.340
83.122,242.340
96.878,117.660
83.122,117.660
149.982,203.068
30.018,203.068
149.982,156.932
30.018,156.932
101.433,242.389
78.567,242.389
101.433,117.611
78.567,117.611
121.500,238.283
58.500,238.283
121.500,121.717
58.500,121.717
144.709,219.314
35.291,219.314
144.709,140.686
35.291,140.686
153.243,188.406
26.757,188.406
153.243,171.594
26.757,171.594
105.944,242.468
74.056,242.468
105.944,117.532
74.056,117.532
132.764,232.792
47.236,232.792
132.764,127.208
47.236,127.208
110.051,241.872
69.949,241.872
110.051,118.128
69.949,118.128
114.557,241.991
65.443,241.991
114.557,118.009
65.443,118.009
153.741,197.324
26.259,197.324
153.741,162.676
26.259,162.676
143.419,225.784
36.581,225.784
143.419,134.216
36.581,134.216
137.308,232.340
42.692,232.340
137.308,127.660
42.692,127.660
119.094,242.145
60.906,242.145
119.094,117.855
60.906,117.855
148.797,218.502
31.203,218.502
148.797,141.498
31.203,141.498
90.000,246.361
90.000,113.639
130.500,238.283
49.500,238.283
130.500,121.717
49.500,121.717
153.689,206.303
26.311,206.303
153.689,153.697
26.311,153.697
99.265,246.463
80.735,246.463
99.265,113.537
80.735,113.537
123.599,242.335
56.401,242.335
123.599,117.665
56.401,117.665
107.918,246.073
72.082,246.073
107.918,113.927
72.082,113.927
141.804,231.766
38.196,231.766
141.804,128.234
38.196,128.234
157.208,189.808
22.792,189.808
157.208,170.192
22.792,170.192
153.093,215.479
26.907,215.479
153.093,144.521
26.907,144.521
116.550,245.847
63.450,245.847
116.550,114.153
63.450,114.153
128.257,242.582
51.743,242.582
128.257,117.418
51.743,117.418
145.940,232.255
34.060,232.255
145.940,127.745
34.060,127.745
139.500,238.283
40.500,238.283
139.500,121.717
40.500,121.717
160.177,180.000
19.823,180.000
151.986,223.762
28.014,223.762
151.986,136.238
28.014,136.238
132.759,242.881
47.241,242.881
132.759,117.119
47.241,117.119
92.367,250.462
87.633,250.462
92.367,109.538
87.633,109.538
97.054,250.435
82.946,250.435
97.054,109.565
82.946,109.565
157.321,210.967
22.679,210.967
157.321,149.033
22.679,149.033
105.702,250.211
74.298,250.211
105.702,109.789
74.298,109.789
101.606,250.590
78.394,250.590
101.606,109.410
78.394,109.410
109.829,249.798
70.171,249.798
109.829,110.202
70.171,110.202
113.918,249.340
66.082,249.340
113.918,110.660
66.082,110.660
125.711,246.626
54.289,246.626
125.711,113.374
54.289,113.374
161.120,191.776
18.880,191.776
161.120,168.224
18.880,168.224
150.427,231.437
29.573,231.437
150.427,128.563
